Wavenumber,Processed
257.39,7023.20
261.70,7049.40
266.00,6997.70
270.30,6902.40
274.60,6850.70
278.89,6854.80
283.19,6866.40
287.48,6884.00
291.77,6896.40
296.05,6899.50
300.34,6916.10
304.62,6957.50
308.90,6994.50
313.17,7009.00
317.45,7074.20
321.72,7094.40
325.99,7131.00
330.26,7204.00
334.52,7244.40
338.79,7310.10
343.05,7361.80
347.30,7433.00
351.56,7471.60
355.81,7579.00
360.07,7630.40
364.31,7727.50
368.56,7770.30
372.80,7880.20
377.05,7905.90
381.29,7953.30
385.52,8039.60
389.76,8101.40
393.99,8202.00
398.22,8267.50
402.45,8346.10
406.67,8408.50
410.90,8443.50
415.12,8498.50
419.34,8511.10
423.55,8514.30
427.77,8523.50
431.98,8555.00
436.19,8534.30
440.39,8557.80
444.60,8513.70
448.80,8445.60
453.00,8336.20
457.20,8234.90
461.39,8093.40
465.58,7936.10
469.78,7791.40
473.96,7695.10
478.15,7714.80
482.33,7816.40
486.51,7914.80
490.69,7934.60
494.87,7746.70
499.04,7321.10
503.21,6765.50
507.38,6166.00
511.55,5632.90
515.71,5150.50
519.87,4767.90
524.03,4462.60
528.19,4194.10
532.34,4017.30
536.50,3875.20
540.65,3740.90
544.79,3647.60
548.94,3556.30
553.08,3483.50
557.22,3403.00
561.36,3344.50
565.49,3283.30
569.63,3239.60
573.76,3217.90
577.89,3213.50
582.01,3185.00
586.14,3240.00
590.26,3250.80
594.38,3307.90
598.49,3350.60
602.61,3367.40
606.72,3319.40
610.83,3259.60
614.93,3123.30
619.04,3002.40
623.14,2897.80
627.24,2775.20
631.34,2694.50
635.43,2633.20
639.52,2571.10
643.61,2551.70
647.70,2507.90
651.79,2492.20
655.87,2463.70
659.95,2436.70
664.03,2418.00
668.10,2382.40
672.18,2370.10
676.25,2356.30
680.31,2342.90
684.38,2326.90
688.44,2309.60
692.51,2283.60
696.56,2245.10
700.62,2248.30
704.67,2233.30
708.73,2230.00
712.77,2218.10
716.82,2204.30
720.86,2216.20
724.91,2195.50
728.95,2199.30
732.98,2185.30
737.02,2167.70
741.05,2178.50
745.08,2177.60
749.11,2167.00
753.13,2165.90
757.15,2161.80
761.17,2202.20
765.19,2241.80
769.21,2305.10
773.22,2430.30
777.23,2545.00
781.24,2656.50
785.24,2766.30
789.24,2810.00
793.25,2802.50
797.24,2824.30
801.24,2820.20
805.23,2792.40
809.22,2763.90
813.21,2711.90
817.20,2673.20
821.18,2616.70
825.16,2593.50
829.14,2539.70
833.12,2486.50
837.09,2402.30
841.06,2371.40
845.03,2266.90
849.00,2167.40
852.96,2074.00
856.92,1980.50
860.88,1904.10
864.84,1847.20
868.79,1805.40
872.75,1804.70
876.69,1773.30
880.64,1713.80
884.59,1698.60
888.53,1662.20
892.47,1651.50
896.41,1620.10
900.34,1589.60
904.27,1567.80
908.20,1564.70
912.13,1548.50
916.06,1531.70
919.98,1511.10
923.90,1484.40
927.82,1475.10
931.73,1454.10
935.64,1444.90
939.55,1419.30
943.46,1395.90
947.37,1386.60
951.27,1377.00
955.17,1383.10
959.07,1356.20
962.97,1350.00
966.86,1343.40
970.75,1318.10
974.64,1336.00
978.52,1315.40
982.41,1306.50
986.29,1305.60
990.17,1301.80
994.04,1306.90
997.92,1293.60
1001.79,1311.10
1005.66,1299.10
1009.52,1321.80
1013.39,1330.10
1017.25,1338.70
1021.11,1361.90
1024.96,1385.90
1028.82,1422.80
1032.67,1447.10
1036.52,1497.30
1040.37,1516.90
1044.21,1550.20
1048.05,1549.10
1051.89,1555.30
1055.73,1554.60
1059.56,1543.20
1063.40,1544.10
1067.23,1529.90
1071.05,1511.70
1074.88,1502.50
1078.70,1494.30
1082.52,1468.10
1086.34,1444.20
1090.15,1413.30
1093.96,1397.30
1097.77,1380.90
1101.58,1341.90
1105.39,1328.70
1109.19,1313.00
1112.99,1282.00
1116.79,1264.60
1120.58,1264.50
1124.38,1262.30
1128.17,1253.90
1131.95,1255.80
1135.74,1255.10
1139.52,1254.20
1143.30,1260.80
1147.08,1277.40
1150.86,1281.50
1154.63,1295.90
1158.40,1302.60
1162.17,1310.20
1165.94,1314.30
1169.70,1315.40
1173.46,1324.50
1177.22,1327.90
1180.98,1327.20
1184.73,1327.20
1188.48,1312.80
1192.23,1324.70
1195.98,1303.80
1199.72,1305.90
1203.46,1284.50
1207.20,1307.00
1210.94,1291.30
1214.67,1300.10
1218.40,1284.50
1222.13,1281.20
1225.86,1283.90
1229.58,1266.40
1233.31,1267.70
1237.02,1241.90
1240.74,1235.30
1244.46,1223.20
1248.17,1208.90
1251.88,1200.40
1255.59,1176.50
1259.29,1167.50
1262.99,1161.40
1266.69,1163.70
1270.39,1144.20
1274.08,1131.10
1277.78,1120.80
1281.47,1117.60
1285.15,1118.40
1288.84,1147.60
1292.52,1127.60
1296.20,1133.50
1299.88,1145.30
1303.56,1131.10
1307.23,1112.80
1310.90,1133.30
1314.57,1112.70
1318.23,1098.00
1321.90,1080.80
1325.56,1092.30
1329.22,1071.40
1332.87,1064.60
1336.52,1061.90
1340.18,1061.00
1343.82,1056.70
1347.47,1065.00
1351.11,1066.90
1354.75,1058.60
1358.39,1067.40
1362.03,1071.10
1365.66,1054.10
1369.29,1055.00
1372.92,1051.10
1376.55,1031.50
1380.17,1047.70
1383.80,1046.00
1387.42,1043.80
1391.03,1035.80
1394.65,1031.30
1398.26,1011.40
1401.87,1010.30
1405.47,1017.50
1409.08,999.50
1412.68,1006.10
1416.28,1015.50
1419.88,1000.20
1423.47,1015.90
1427.07,1014.30
1430.66,1013.80
1434.24,1015.70
1437.83,1031.10
1441.41,1038.60
1444.99,1047.20
1448.57,1061.70
1452.14,1075.70
1455.72,1063.40
1459.29,1068.00
1462.86,1058.10
1466.42,1054.40
1469.98,1057.20
1473.54,1057.20
1477.10,1026.30
1480.66,1043.40
1484.21,1054.00
1487.76,1042.50
1491.31,1032.20
1494.86,1059.50
1498.40,1059.10
1501.94,1068.40
1505.48,1087.30
1509.02,1092.00
1512.55,1090.30
1516.08,1129.30
1519.61,1111.30
1523.14,1133.40
1526.66,1142.40
1530.19,1145.00
1533.71,1154.30
1537.22,1174.70
1540.74,1188.80
1544.25,1230.00
1547.76,1308.30
1551.27,1434.10
1554.77,1537.50
1558.27,1533.30
1561.77,1398.90
1565.27,1328.60
1568.77,1330.40
1572.26,1347.50
1575.75,1376.80
1579.24,1398.90
1582.72,1409.30
1586.21,1442.90
1589.69,1477.80
1593.17,1508.00
1596.64,1518.40
1600.12,1556.60
1603.59,1591.20
1607.05,1607.10
1610.52,1629.80
1613.98,1667.30
1617.45,1670.20
1620.91,1690.20
1624.36,1683.40
1627.82,1718.30
1631.27,1743.70
1634.72,1752.40
1638.16,1765.30
1641.61,1770.50
1645.05,1784.60
1648.49,1789.00
1651.93,1766.10
1655.36,1755.00
1658.80,1726.70
1662.23,1730.10
1665.65,1686.40
1669.08,1680.20
1672.50,1683.90
1675.92,1623.40
1679.34,1577.00
1682.76,1572.00
1686.17,1534.90
1689.58,1485.90
1692.99,1472.30
1696.39,1456.30
1699.80,1440.80
1703.20,1388.70
1706.60,1317.70
1709.99,1308.00
1713.39,1323.50
1716.78,1399.90
1720.17,1460.10
1723.56,1515.30
1726.94,1552.00
1730.32,1508.50
1733.70,1464.20
1737.08,1381.00
1740.45,1311.80
1743.83,1237.50
1747.20,1175.90
1750.56,1157.10
1753.93,1139.20
1757.29,1136.00
1760.65,1138.30
1764.01,1140.60
1767.37,1127.40
1770.72,1127.50
1774.07,1111.60
1777.42,1118.60
1780.77,1107.00
1784.11,1085.70
1787.45,1068.70
1790.79,1041.30
1794.13,1041.40
1797.46,1020.70
1800.79,997.60
1804.12,974.50
1807.45,958.10
1810.78,964.80
1814.10,928.50
1817.42,922.60
1820.74,916.60
1824.05,905.70
1827.36,895.40
1830.67,892.40
1833.98,882.10
1837.29,878.80
1840.59,876.00
1843.89,875.90
1847.19,867.10
1850.49,863.90
1853.78,869.90
1857.07,859.30
1860.36,850.50
1863.65,874.60
1866.93,845.50
1870.22,855.60
1873.50,870.00
1876.77,839.20
1880.05,836.90
1883.32,843.90
1886.59,822.60
1889.86,819.60
1893.12,822.80
1896.39,822.30
1899.65,809.30
1902.91,797.10
1906.16,798.00
1909.42,801.60
1912.67,785.20
1915.92,790.70
1919.16,805.20
1922.41,793.70
1925.65,800.30
1928.89,804.90
1932.13,783.80
1935.36,778.50
1938.60,781.80
1941.83,779.10
1945.05,780.90
1948.28,779.80
1951.50,782.10
1954.72,786.70
1957.94,780.70
1961.16,760.60
1964.37,773.40
1967.58,760.70
1970.79,746.90
1974.00,742.40
1977.20,741.20
1980.41,749.40
1983.61,742.00
1986.80,744.20
1990.00,738.90
1993.19,730.50
1996.38,727.60
1999.57,719.70
2002.76,717.50
2005.94,731.20
2009.12,722.20
2012.30,722.00
2015.47,723.60
2018.65,719.10
2021.82,716.70
2024.99,706.60
2028.16,699.90
2031.32,699.20
2034.48,696.70
2037.64,698.80
2040.80,694.40
2043.96,674.60
2047.11,666.60
2050.26,667.30
2053.41,669.80
2056.56,651.40
2059.70,660.30
2062.84,633.60
2065.98,657.50
2069.12,643.10
2072.25,651.70
2075.39,636.10
2078.52,633.00
2081.64,643.40
2084.77,641.70
2087.89,638.20
2091.01,629.90
2094.13,629.90
2097.25,635.40
2100.36,618.20
2103.47,623.80
2106.58,616.90
2109.69,605.00
2112.79,587.50
2115.90,594.60
2119.00,597.10
2122.09,578.40
2125.19,572.00
2128.28,563.70
2131.37,553.70
2134.46,569.90
2137.55,553.30
2140.63,549.80
2143.71,533.80
2146.79,537.30
2149.87,553.60
2152.94,526.80
2156.02,530.70
2159.09,526.90
2162.15,512.80
2165.22,527.90
2168.28,523.30
2171.34,509.40
2174.40,512.00
2177.46,515.30
2180.51,510.60
2183.56,496.10
2186.61,496.30
2189.66,472.90
2192.71,481.40
2195.75,493.40
2198.79,481.00
2201.83,457.60
2204.86,478.90
2207.90,461.20
2210.93,448.10
2213.96,454.70
2216.98,447.30
2220.01,440.00
2223.03,435.50
2226.05,432.70
2229.07,432.80
2232.08,425.10
2235.10,414.00
2238.11,419.40
2241.12,434.10
2244.12,423.60
2247.13,399.10
2250.13,410.90
2253.13,403.00
2256.13,409.40
2259.12,415.30
2262.11,393.80
2265.10,389.60
2268.09,385.70
2271.08,399.90
2274.06,392.60
2277.04,382.20
2280.02,373.70
2283.00,369.10
2285.97,362.90
2288.95,384.80
2291.92,348.30
2294.89,358.50
2297.85,359.90
2300.81,358.90
2303.78,356.20
2306.74,368.60
2309.69,363.30
2312.65,368.70
2315.60,382.60
2318.55,408.20
2321.50,461.10
2324.44,645.10
2327.39,848.70
2330.33,860.90
2333.27,724.30
2336.20,484.80
2339.14,378.90
2342.07,369.60
2345.00,342.80
2347.93,340.50
2350.85,313.80
2353.77,317.90
2356.70,317.80
2359.61,314.40
2362.53,305.30
2365.45,313.00
2368.36,309.90
2371.27,302.40
2374.18,280.40
2377.08,280.50
2379.98,290.50
2382.88,291.00
2385.78,287.80
2388.68,271.40
2391.57,293.50
2394.47,277.50
2397.36,272.90
2400.24,273.80
2403.13,276.60
2406.01,269.60
2408.89,278.50
2411.77,260.80
2414.65,264.40
2417.52,272.60
2420.40,261.70
2423.27,265.40
2426.13,257.00
2429.00,255.10
2431.86,242.40
2434.72,251.90
2437.58,260.80
2440.44,243.00
2443.29,243.60
2446.15,240.70
2449.00,234.70
2451.85,233.90
2454.69,237.50
2457.54,213.40
2460.38,238.60
2463.22,235.00
2466.05,231.30
2468.89,211.60
2471.72,237.00
2474.55,224.60
2477.38,224.50
2480.21,220.70
2483.03,212.60
2485.85,206.30
2488.67,219.00
2491.49,212.10
2494.30,214.60
2497.12,214.70
2499.93,213.00
2502.74,215.60
2505.54,204.10
2508.35,215.80
2511.15,194.20
2513.95,194.40
2516.75,207.10
2519.54,193.70
2522.34,194.70
2525.13,202.00
2527.92,205.40
2530.70,196.60
2533.49,196.10
2536.27,198.40
2539.05,201.20
2541.83,184.60
2544.61,200.10
2547.38,185.20
2550.15,184.60
2552.92,182.60
2555.69,183.60
2558.45,190.70
2561.22,183.50
2563.98,186.60
2566.74,186.50
2569.50,177.80
2572.25,170.30
2575.00,176.30
2577.75,187.50
2580.50,180.90
2583.25,169.40
2585.99,176.30
2588.73,174.90
2591.47,157.70
2594.21,174.50
2596.94,179.40
2599.68,166.30
2602.41,159.90
2605.14,166.00
2607.87,155.70
2610.59,165.00
2613.31,166.90
2616.03,155.80
2618.75,165.00
2621.47,169.00
2624.18,148.80
2626.89,140.00
2629.60,148.90
2632.31,164.10
2635.02,170.10
2637.72,151.40
2640.42,160.80
2643.12,161.90
2645.82,166.40
2648.51,154.00
2651.20,150.10
2653.89,152.60
2656.58,167.40
2659.27,143.10
2661.95,148.30
2664.64,150.60
2667.32,150.40
2669.99,156.30
2672.67,151.60
2675.34,150.20
2678.02,144.20
2680.69,141.90
2683.35,142.60
2686.02,152.30
2688.68,153.30
2691.34,154.50
2694.00,151.60
2696.66,156.30
2699.31,150.30
2701.97,146.90
2704.62,146.80
2707.27,143.40
2709.91,138.00
2712.56,138.80
2715.20,137.20
2717.84,158.10
2720.48,147.40
2723.11,155.50
2725.75,157.00
2728.38,154.70
2731.01,166.10
2733.64,155.30
2736.26,144.30
2738.88,161.20
2741.51,132.70
2744.13,151.70
2746.74,150.00
2749.36,156.20
2751.97,145.20
2754.58,147.70
2757.19,157.80
2759.80,157.60
2762.40,142.10
2765.00,162.20
2767.61,141.40
2770.20,149.60
2772.80,157.50
2775.40,153.70
2777.99,150.40
2780.58,153.70
2783.17,166.00
2785.75,161.50
2788.34,145.10
2790.92,144.80
2793.50,153.40
2796.08,161.30
2798.65,175.10
2801.23,160.50
2803.80,158.40
2806.37,158.50
2808.94,171.40
2811.50,171.20
2814.06,169.80
2816.63,157.00
2819.19,167.40
2821.74,163.60
2824.30,165.70
2826.85,173.60
2829.40,171.50
2831.95,187.10
2834.50,180.70
2837.04,170.50
2839.59,163.70
2842.13,170.20
2844.67,175.90
2847.20,179.00
2849.74,177.80
2852.27,184.20
2854.80,181.40
2857.33,193.90
2859.86,184.60
2862.38,186.60
2864.91,204.70
2867.43,191.70
2869.95,193.40
2872.46,203.60
2874.98,212.50
2877.49,208.90
2880.00,211.90
2882.51,213.60
2885.02,224.00
2887.52,220.60
2890.02,226.30
2892.52,219.10
2895.02,224.50
2897.52,230.40
2900.01,238.20
2902.51,244.40
2905.00,244.80
2907.49,234.40
2909.97,253.80
2912.46,261.20
2914.94,255.80
2917.42,249.30
2919.90,247.40
2922.37,265.10
2924.85,279.10
2927.32,281.60
2929.79,267.40
2932.26,280.10
2934.73,291.00
2937.19,304.40
2939.65,303.70
2942.11,316.30
2944.57,297.60
2947.03,316.30
2949.48,316.00
2951.94,327.60
2954.39,330.70
2956.84,333.10
2959.28,322.70
2961.73,333.20
2964.17,350.50
2966.61,353.20
2969.05,346.30
2971.49,357.00
2973.92,377.10
2976.35,373.60
2978.78,365.70
2981.21,374.40
2983.64,385.10
2986.06,395.50
2988.49,406.10
2990.91,402.60
2993.33,404.00
2995.74,430.90
2998.16,431.00
3000.57,428.20
3002.98,444.10
3005.39,453.00
3007.80,461.80
3010.20,453.30
3012.61,475.10
3015.01,467.50
3017.41,466.50
3019.80,487.30
3022.20,493.40
3024.59,498.60
3026.98,506.50
3029.37,528.90
3031.76,530.70
3034.15,552.10
3036.53,551.10
3038.91,567.50
3041.29,581.00
3043.67,584.90
3046.05,596.00
3048.42,610.70
3050.79,624.00
3053.16,631.00
3055.53,640.20
3057.90,663.70
3060.26,675.20
3062.62,682.90
3064.98,724.50
3067.34,724.70
3069.70,730.00
3072.05,744.20
3074.41,733.80
3076.76,735.70
3079.10,757.90
3081.45,761.90
3083.80,797.70
3086.14,800.20
3088.48,806.90
3090.82,814.70
3093.16,824.20
3095.49,830.80
3097.83,845.60
3100.16,871.80
3102.49,886.80
3104.81,891.00
3107.14,897.70
3109.46,916.30
3111.79,926.10
3114.11,960.60
3116.42,980.70
3118.74,982.60
3121.05,1007.50
3123.37,1027.60
3125.68,1038.90
3127.99,1064.20
3130.29,1090.70
3132.60,1083.50
3134.90,1106.00
3137.20,1107.70
3139.50,1126.80
3141.80,1152.80
3144.09,1133.40
3146.39,1172.30
3148.68,1173.90
3150.97,1183.10
3153.25,1199.40
3155.54,1198.00
3157.82,1212.20
3160.11,1212.80
3162.39,1214.80
3164.66,1235.30
3166.94,1261.00
3169.21,1244.50
3171.49,1244.20
3173.76,1254.60
3176.03,1258.60
3178.29,1262.20
3180.56,1271.00
3182.82,1282.90
3185.08,1272.80
3187.34,1284.10
3189.60,1284.30
3191.86,1297.50
3194.11,1306.10
3196.36,1302.50
3198.61,1307.60
3200.86,1314.20
3203.11,1312.30
3205.35,1317.20
3207.59,1308.80
3209.83,1325.30
3212.07,1311.40
3214.31,1323.10
3216.54,1337.00
3218.78,1323.90
3221.01,1310.10
3223.24,1317.10
3225.47,1299.60
3227.69,1292.00
3229.92,1273.40
3232.14,1278.30
3234.36,1251.20
3236.58,1259.70
3238.79,1235.90
3241.01,1242.80
3243.22,1213.00
3245.43,1210.40
3247.64,1191.40
3249.85,1204.80
3252.05,1196.90
3254.26,1170.40
3256.46,1159.50
3258.66,1153.70
3260.86,1160.30
3263.05,1139.00
3265.25,1138.10
3267.44,1137.50
3269.63,1110.00
3271.82,1112.60
3274.01,1108.70
3276.19,1109.80
3278.38,1108.60
3280.56,1092.50
3282.74,1102.90
3284.92,1112.60
3287.09,1104.40
3289.27,1100.20
3291.44,1079.30
3293.61,1062.90
3295.78,1069.20
3297.95,1055.80
3300.11,1070.20
3302.28,1060.90
3304.44,1054.10
3306.60,1048.50
3308.76,1035.70
3310.91,1026.40
3313.07,1007.70
3315.22,995.30
3317.37,999.30
3319.52,981.60
3321.67,974.00
3323.81,983.20
3325.95,938.70
3328.10,950.00
3330.24,952.50
3332.37,940.30
3334.51,941.10
3336.65,927.50
3338.78,929.60
3340.91,925.60
3343.04,928.40
3345.17,933.60
3347.29,909.80
3349.41,928.30
3351.54,903.10
3353.66,931.10
3355.78,905.90
3357.89,902.90
3360.01,900.50
3362.12,882.70
3364.23,876.10
3366.34,874.20
3368.45,866.60
3370.55,845.70
3372.66,829.00
3374.76,834.70
3376.86,810.00
3378.96,789.70
3381.06,785.10
